*RAS_DATA_START
*RAS_HEADER_START
*ATMOSPHERE_TEMP_DATAOUT "0.0000000000"
*ATMOSPHERE_TEMP_END "273.1500000000"
*ATMOSPHERE_TEMP_START "273.1500000000"
*ATMOSPHERE_TEMP_UNIT "K"
*ATMOSPHERE_TEMP_UNIT_DISP "0.0000000000"
*DISP_FMT_X "%.2f"
*DISP_FMT_Y "%.0f"
*DISP_FULLSCALE "149966.6024780000"
*DISP_LINE_COLOR "255.0000000000"
*DISP_LINE_STYLE "0.0000000000"
*DISP_LINE_WIDTH "0.2500000000"
*DISP_NOTE "測定データ-13"
*DISP_OFFSET_Y "0.0000000000"
*DISP_PEAKSEARCH_UNIT_Y "cps"
*DISP_RANGE_BOTTOM "0.0000000000"
*DISP_RANGE_LEFT "5.0000000000"
*DISP_RANGE_LOGCUTOFF "0.0100000000"
*DISP_RANGE_RIGHT "30.0000000000"
*DISP_RANGE_TOP "149966.6024780000"
*DISP_SCALE_MODE_Y "0.0000000000"
*DISP_TAB_NAME "2θ/θ"
*DISP_TITLE_Y "強度"
*DISP_UNIT_Y "cps"
*DISP_WINDOW_NAME "MSG_MACROENGINE"
*FILE_COMMENT " "
*FILE_MD5 ""
*FILE_MEMO " "
*FILE_OPERATOR "Administrator"
*FILE_PART_ID "MEAS_KHP2_00068"
*FILE_SAMPLE " "
*FILE_TYPE "RAS_RAW"
*FILE_USERGROUP "システムマネージャ"
*FILE_VERSION "1.0000000000"
*HW_ATTACHMENT_ID "ATT0099"
*HW_ATTACHMENT_NAME "極低温アタッチメント(Z)-12K BELSORP|Ultra-Low Temp. Att.(Z)-12K BELSORP"
*HW_COUNTER_ID-0 "CUT0041"
*HW_COUNTER_ID-1 "CUT0020"
*HW_COUNTER_ID-2 ""
*HW_COUNTER_ID-3 "CSL0021"
*HW_COUNTER_ID-4 "CMC0021"
*HW_COUNTER_NAME-0 "D/teX Ultra 250|D/teX Ultra 250"
*HW_COUNTER_NAME-1 "None|None"
*HW_COUNTER_NAME-2 ""
*HW_COUNTER_NAME-3 "BBM|BBM"
*HW_COUNTER_NAME-4 "検出器モノクロメータ|Detector monochromator"
*HW_COUNTER_SELECT_NAME "D/teX Ultra 250|D/teX Ultra 250"
*HW_GONIOMETER_ID "GON0023"
*HW_GONIOMETER_NAME "SmartLab|SmartLab"
*HW_GONIOMETER_RADIUS-0 "90.0"
*HW_GONIOMETER_RADIUS-1 "114.0"
*HW_GONIOMETER_RADIUS-2 "190.0"
*HW_GONIOMETER_RADIUS-3 "300.0"
*HW_GONIOMETER_RADIUS-4 "187.0"
*HW_GONIOMETER_RADIUS-5 "300.0"
*HW_GONIOMETER_RADIUS-6 "113.0"
*HW_GONIOMETER_RADIUS-7 "331.0"
*HW_I_OPT_ID-0 "CBO0021"
*HW_I_OPT_ID-1 "ICR0023"
*HW_I_OPT_ID-2 "ISL0021"
*HW_I_OPT_ID-3 "ISO0021"
*HW_I_OPT_ID-4 "IAD0021"
*HW_I_OPT_ID-5 "IPR0001"
*HW_I_OPT_NAME-0 "CBOユニット|CBO unit"
*HW_I_OPT_NAME-1 "標準入射光学ユニット|Standard incident optical unit"
*HW_I_OPT_NAME-2 "標準入射スリットボックス|Standard incident slit box"
*HW_I_OPT_NAME-3 "入射平行スリット|Incident parallel slit"
*HW_I_OPT_NAME-4 "長手制限スリット|Length limiting slit"
*HW_I_OPT_NAME-5 "None|None"
*HW_R_ATTENUATER_AUTOMODE "0"
*HW_R_OPT_ID-0 "RSS0021"
*HW_R_OPT_ID-1 "RCR0023"
*HW_R_OPT_ID-2 "RSO0021"
*HW_R_OPT_ID-3 "RRS0021"
*HW_R_OPT_ID-4 "ATN0021"
*HW_R_OPT_ID-5 "RFL0021"
*HW_R_OPT_ID-6 "RAD0021"
*HW_R_OPT_NAME-0 "標準受光スリットボックス1|Standard receiving slit box # 1"
*HW_R_OPT_NAME-1 "標準受光光学ユニット1|Standard receiving unit # 1"
*HW_R_OPT_NAME-2 "標準受光光学ユニット2|Standard receiving optical unit # 2"
*HW_R_OPT_NAME-3 "標準受光スリットボックス2|Standard receiving slit box # 2"
*HW_R_OPT_NAME-4 "標準アッテネータ|Standard Attenuator"
*HW_R_OPT_NAME-5 "Cu Kβ|Cu K-beta"
*HW_R_OPT_NAME-6 "調整用受光スリット|Alignment receiving slit"
*HW_SAMPLE_HOLDER_ID "SMP0020"
*HW_SAMPLE_HOLDER_NAME "無し|None"
*HW_XG_CURRENT_MAX "200"
*HW_XG_CURRENT_MIN "10"
*HW_XG_CURRENT_RESOLUTION "2"
*HW_XG_CURRENT_UNIT "mA"
*HW_XG_FOCUS ""
*HW_XG_FOCUS_TYPE "Normal"
*HW_XG_ID ""
*HW_XG_NAME "9kW 開放管(45kV 200mA ID:1700)|9kW Rotating anode(45kV 200mA ID:1700)"
*HW_XG_TARGET_ATOMIC_NUMBER "29.0000000000"
*HW_XG_TARGET_NAME "Cu"
*HW_XG_TYPE "Rota"
*HW_XG_VOLTAGE_MAX "45"
*HW_XG_VOLTAGE_MIN "20"
*HW_XG_VOLTAGE_RESOLUTION "2"
*HW_XG_VOLTAGE_UNIT "kV"
*HW_XG_WATT_MAX "9"
*HW_XG_WATT_UNIT "kW"
*HW_XG_WAVE_LENGTH_ALPHA1 "1.540593"
*HW_XG_WAVE_LENGTH_ALPHA2 "1.544414"
*HW_XG_WAVE_LENGTH_BETA "1.392250"
*MEAS_COND_AXIS_NAME-0 "2θ/θ"
*MEAS_COND_AXIS_NAME-1 "2θ"
*MEAS_COND_AXIS_NAME-2 "ω"
*MEAS_COND_AXIS_NAME-3 "Z"
*MEAS_COND_AXIS_NAME-4 "2θ/ω"
*MEAS_COND_AXIS_NAME-5 "θs"
*MEAS_COND_AXIS_NAME-6 "θd"
*MEAS_COND_AXIS_NAME-7 "Ts"
*MEAS_COND_AXIS_NAME-8 "CBO選択スリット"
*MEAS_COND_AXIS_NAME-9 "M"
*MEAS_COND_AXIS_NAME-10 "入射平行スリット"
*MEAS_COND_AXIS_NAME-11 "入射スリット"
*MEAS_COND_AXIS_NAME-12 ""
*MEAS_COND_AXIS_NAME-13 "Zs"
*MEAS_COND_AXIS_NAME-14 "入射光学素子"
*MEAS_COND_AXIS_NAME-15 "長手制限スリット"
*MEAS_COND_AXIS_NAME-16 "センタースリット"
*MEAS_COND_AXIS_NAME-17 "フィルター"
*MEAS_COND_AXIS_NAME-18 "受光スリット1"
*MEAS_COND_AXIS_NAME-19 "受光スリット2"
*MEAS_COND_AXIS_NAME-20 "受光光学素子"
*MEAS_COND_AXIS_NAME-21 "受光平行スリット"
*MEAS_COND_AXIS_NAME-22 "調整用受光スリット"
*MEAS_COND_AXIS_NAME-23 ""
*MEAS_COND_AXIS_NAME-24 ""
*MEAS_COND_AXIS_NAME-25 "Zd"
*MEAS_COND_AXIS_NAME-26 "アッテネータ"
*MEAS_COND_AXIS_NAME-27 "検出器モノクロメータ"
*MEAS_COND_AXIS_NAME-28 "モノクロメータスリット"
*MEAS_COND_AXIS_NAME-29 "プライマリビーム"
*MEAS_COND_AXIS_NAME-30 "PHA"
*MEAS_COND_AXIS_NAME_INTERNAL-0 "TwoThetaTheta"
*MEAS_COND_AXIS_NAME_INTERNAL-1 "TwoTheta"
*MEAS_COND_AXIS_NAME_INTERNAL-2 "Omega"
*MEAS_COND_AXIS_NAME_INTERNAL-3 "Z"
*MEAS_COND_AXIS_NAME_INTERNAL-4 "TwoThetaOmega"
*MEAS_COND_AXIS_NAME_INTERNAL-5 "ThetaS"
*MEAS_COND_AXIS_NAME_INTERNAL-6 "ThetaD"
*MEAS_COND_AXIS_NAME_INTERNAL-7 "Ts"
*MEAS_COND_AXIS_NAME_INTERNAL-8 "CBO"
*MEAS_COND_AXIS_NAME_INTERNAL-9 "CBO-M"
*MEAS_COND_AXIS_NAME_INTERNAL-10 "IncidentSollerSlit"
*MEAS_COND_AXIS_NAME_INTERNAL-11 "IncidentSlitBox"
*MEAS_COND_AXIS_NAME_INTERNAL-12 "IncidentSlitBox-_Axis"
*MEAS_COND_AXIS_NAME_INTERNAL-13 "Zs"
*MEAS_COND_AXIS_NAME_INTERNAL-14 "IncidentMonochromator"
*MEAS_COND_AXIS_NAME_INTERNAL-15 "IncidentAxdSlit"
*MEAS_COND_AXIS_NAME_INTERNAL-16 "CenterSlit"
*MEAS_COND_AXIS_NAME_INTERNAL-17 "Filter"
*MEAS_COND_AXIS_NAME_INTERNAL-18 "ReceivingSlitBox1"
*MEAS_COND_AXIS_NAME_INTERNAL-19 "ReceivingSlitBox2"
*MEAS_COND_AXIS_NAME_INTERNAL-20 "ReceivingOptics"
*MEAS_COND_AXIS_NAME_INTERNAL-21 "ReceivingSollerSlit"
*MEAS_COND_AXIS_NAME_INTERNAL-22 "ReceivingAxdSlit"
*MEAS_COND_AXIS_NAME_INTERNAL-23 "ReceivingSlitBox1-_Axis"
*MEAS_COND_AXIS_NAME_INTERNAL-24 "ReceivingSlitBox2-_Axis"
*MEAS_COND_AXIS_NAME_INTERNAL-25 "ReceivingSlitBox2-Zd"
*MEAS_COND_AXIS_NAME_INTERNAL-26 "Attenuator"
*MEAS_COND_AXIS_NAME_INTERNAL-27 "CounterMonochromator"
*MEAS_COND_AXIS_NAME_INTERNAL-28 "CounterSlit"
*MEAS_COND_AXIS_NAME_INTERNAL-29 "IncidentPrimary"
*MEAS_COND_AXIS_NAME_INTERNAL-30 "PHA"
*MEAS_COND_AXIS_NAME_MAGICNO-0 "83951616.0000000000"
*MEAS_COND_AXIS_NAME_MAGICNO-1 "268632064.0000000000"
*MEAS_COND_AXIS_NAME_MAGICNO-2 "268500992.0000000000"
*MEAS_COND_AXIS_NAME_MAGICNO-3 "285278208.0000000000"
*MEAS_COND_AXIS_NAME_MAGICNO-4 "83951616.0000000000"
*MEAS_COND_AXIS_NAME_MAGICNO-5 "131072.0000000000"
*MEAS_COND_AXIS_NAME_MAGICNO-6 "131072.0000000000"
*MEAS_COND_AXIS_NAME_MAGICNO-7 "318898176.0000000000"
*MEAS_COND_AXIS_NAME_MAGICNO-8 "20971521.0000000000"
*MEAS_COND_AXIS_NAME_MAGICNO-9 "285343744.0000000000"
*MEAS_COND_AXIS_NAME_MAGICNO-10 "20971521.0000000000"
*MEAS_COND_AXIS_NAME_MAGICNO-11 "22020097.0000000000"
*MEAS_COND_AXIS_NAME_MAGICNO-12 "25165824.0000000000"
*MEAS_COND_AXIS_NAME_MAGICNO-13 "318898176.0000000000"
*MEAS_COND_AXIS_NAME_MAGICNO-14 "1.0000000000"
*MEAS_COND_AXIS_NAME_MAGICNO-15 "20971521.0000000000"
*MEAS_COND_AXIS_NAME_MAGICNO-16 "20971521.0000000000"
*MEAS_COND_AXIS_NAME_MAGICNO-17 "20971521.0000000000"
*MEAS_COND_AXIS_NAME_MAGICNO-18 "23068673.0000000000"
*MEAS_COND_AXIS_NAME_MAGICNO-19 "23068673.0000000000"
*MEAS_COND_AXIS_NAME_MAGICNO-20 "20971521.0000000000"
*MEAS_COND_AXIS_NAME_MAGICNO-21 "20971521.0000000000"
*MEAS_COND_AXIS_NAME_MAGICNO-22 "20971521.0000000000"
*MEAS_COND_AXIS_NAME_MAGICNO-23 "25165824.0000000000"
*MEAS_COND_AXIS_NAME_MAGICNO-24 "25165824.0000000000"
*MEAS_COND_AXIS_NAME_MAGICNO-25 "285343744.0000000000"
*MEAS_COND_AXIS_NAME_MAGICNO-26 "17301505.0000000000"
*MEAS_COND_AXIS_NAME_MAGICNO-27 "20971521.0000000000"
*MEAS_COND_AXIS_NAME_MAGICNO-28 "20971521.0000000000"
*MEAS_COND_AXIS_NAME_MAGICNO-29 "20971521.0000000000"
*MEAS_COND_AXIS_NAME_MAGICNO-30 "0.0000000000"
*MEAS_COND_AXIS_OFFSET-0 "-"
*MEAS_COND_AXIS_OFFSET-1 "0.4252000000"
*MEAS_COND_AXIS_OFFSET-2 "0.2871000000"
*MEAS_COND_AXIS_OFFSET-3 "-"
*MEAS_COND_AXIS_OFFSET-4 "-"
*MEAS_COND_AXIS_OFFSET-5 "0.2871000000"
*MEAS_COND_AXIS_OFFSET-6 "0.1381000000"
*MEAS_COND_AXIS_OFFSET-7 "-"
*MEAS_COND_AXIS_OFFSET-8 "-"
*MEAS_COND_AXIS_OFFSET-9 "-"
*MEAS_COND_AXIS_OFFSET-10 "-"
*MEAS_COND_AXIS_OFFSET-11 "-"
*MEAS_COND_AXIS_OFFSET-12 "-"
*MEAS_COND_AXIS_OFFSET-13 "-"
*MEAS_COND_AXIS_OFFSET-14 "-"
*MEAS_COND_AXIS_OFFSET-15 "-"
*MEAS_COND_AXIS_OFFSET-16 "-"
*MEAS_COND_AXIS_OFFSET-17 "-"
*MEAS_COND_AXIS_OFFSET-18 "-"
*MEAS_COND_AXIS_OFFSET-19 "-"
*MEAS_COND_AXIS_OFFSET-20 "-"
*MEAS_COND_AXIS_OFFSET-21 "-"
*MEAS_COND_AXIS_OFFSET-22 "-"
*MEAS_COND_AXIS_OFFSET-23 "-"
*MEAS_COND_AXIS_OFFSET-24 "-"
*MEAS_COND_AXIS_OFFSET-25 "-"
*MEAS_COND_AXIS_OFFSET-26 "-"
*MEAS_COND_AXIS_OFFSET-27 "-"
*MEAS_COND_AXIS_OFFSET-28 "-"
*MEAS_COND_AXIS_OFFSET-29 "-"
*MEAS_COND_AXIS_OFFSET-30 "-"
*MEAS_COND_AXIS_POSITION-0 "0.0000000000"
*MEAS_COND_AXIS_POSITION-1 "0.0000000000"
*MEAS_COND_AXIS_POSITION-2 "0.0000000000"
*MEAS_COND_AXIS_POSITION-3 "-0.6926000000"
*MEAS_COND_AXIS_POSITION-4 "0.0000000000"
*MEAS_COND_AXIS_POSITION-5 "0.0000000000"
*MEAS_COND_AXIS_POSITION-6 "0.0000000000"
*MEAS_COND_AXIS_POSITION-7 "-0.8530000000"
*MEAS_COND_AXIS_POSITION-8 "BB"
*MEAS_COND_AXIS_POSITION-9 "0.0000000000"
*MEAS_COND_AXIS_POSITION-10 "Soller_slit_2.5deg"
*MEAS_COND_AXIS_POSITION-11 "1/3deg"
*MEAS_COND_AXIS_POSITION-12 "1.1044000000"
*MEAS_COND_AXIS_POSITION-13 "-0.3171900000"
*MEAS_COND_AXIS_POSITION-14 "0.0000000000"
*MEAS_COND_AXIS_POSITION-15 "2.0mm"
*MEAS_COND_AXIS_POSITION-16 "None"
*MEAS_COND_AXIS_POSITION-17 "Cu_K-beta"
*MEAS_COND_AXIS_POSITION-18 "20.000mm"
*MEAS_COND_AXIS_POSITION-19 "20.000mm"
*MEAS_COND_AXIS_POSITION-20 "No_unit"
*MEAS_COND_AXIS_POSITION-21 "Soller_slit_2.5deg"
*MEAS_COND_AXIS_POSITION-22 "None"
*MEAS_COND_AXIS_POSITION-23 "20.0000000000"
*MEAS_COND_AXIS_POSITION-24 "20.0000000000"
*MEAS_COND_AXIS_POSITION-25 "0.0409400000"
*MEAS_COND_AXIS_POSITION-26 "Open"
*MEAS_COND_AXIS_POSITION-27 "None"
*MEAS_COND_AXIS_POSITION-28 "None"
*MEAS_COND_AXIS_POSITION-29 "None"
*MEAS_COND_AXIS_POSITION-30 "34.0000000000"
*MEAS_COND_AXIS_UNIT-0 "deg"
*MEAS_COND_AXIS_UNIT-1 "deg"
*MEAS_COND_AXIS_UNIT-2 "deg"
*MEAS_COND_AXIS_UNIT-3 "mm"
*MEAS_COND_AXIS_UNIT-4 "deg"
*MEAS_COND_AXIS_UNIT-5 "deg"
*MEAS_COND_AXIS_UNIT-6 "deg"
*MEAS_COND_AXIS_UNIT-7 "mm"
*MEAS_COND_AXIS_UNIT-8 ""
*MEAS_COND_AXIS_UNIT-9 "pulse"
*MEAS_COND_AXIS_UNIT-10 ""
*MEAS_COND_AXIS_UNIT-11 ""
*MEAS_COND_AXIS_UNIT-12 "mm"
*MEAS_COND_AXIS_UNIT-13 "mm"
*MEAS_COND_AXIS_UNIT-14 ""
*MEAS_COND_AXIS_UNIT-15 ""
*MEAS_COND_AXIS_UNIT-16 ""
*MEAS_COND_AXIS_UNIT-17 ""
*MEAS_COND_AXIS_UNIT-18 ""
*MEAS_COND_AXIS_UNIT-19 ""
*MEAS_COND_AXIS_UNIT-20 ""
*MEAS_COND_AXIS_UNIT-21 ""
*MEAS_COND_AXIS_UNIT-22 ""
*MEAS_COND_AXIS_UNIT-23 "mm"
*MEAS_COND_AXIS_UNIT-24 "mm"
*MEAS_COND_AXIS_UNIT-25 "mm"
*MEAS_COND_AXIS_UNIT-26 ""
*MEAS_COND_AXIS_UNIT-27 ""
*MEAS_COND_AXIS_UNIT-28 ""
*MEAS_COND_AXIS_UNIT-29 ""
*MEAS_COND_AXIS_UNIT-30 "div"
*MEAS_COND_COUNTER_CNTLOSS_CORR "0.0000000000"
*MEAS_COND_COUNTER_PHABASE "34.0000000000"
*MEAS_COND_COUNTER_PHAWINDOW "15.0000000000"
*MEAS_COND_COUNTER_PHA_UNIT "div"
*MEAS_COND_COUNTER_TAUDIFF "0.0000000000"
*MEAS_COND_COUNTER_TAUINT "0.0000000000"
*MEAS_COND_IRRADIATION_MODE "OFF"
*MEAS_COND_IRRADIATION_WIDTH ""
*MEAS_COND_OPT_ATTR "集中法"
*MEAS_COND_OPT_NAME "ガス吸着（クライオ運転）"
*MEAS_COND_UNSYMMETRIC_MODE "OFF"
*MEAS_COND_XG_CURRENT "200.0000000000"
*MEAS_COND_XG_VOLTAGE "45.0000000000"
*MEAS_COND_XG_WAVE_TYPE "Ka"
*MEAS_DATA_COUNT "2501.0000000000"
*MEAS_SCAN_AXIS_X "2θ/θ"
*MEAS_SCAN_AXIS_X_INTERNAL "TwoThetaTheta"
*MEAS_SCAN_END_TIME "10/05/17 20:23:44"
*MEAS_SCAN_MODE "CONTINUOUS"
*MEAS_SCAN_MONITOR "0"
*MEAS_SCAN_RESOLUTION_X "0.0002"
*MEAS_SCAN_SPEED "5.098477"
*MEAS_SCAN_SPEED_UNIT "deg/min"
*MEAS_SCAN_SPEED_USER "5.0"
*MEAS_SCAN_START "5.0000000000"
*MEAS_SCAN_START_TIME "10/05/17 20:17:36"
*MEAS_SCAN_STEP "0.0100000000"
*MEAS_SCAN_STOP "30.0000000000"
*MEAS_SCAN_UNIT_X "deg"
*MEAS_SCAN_UNIT_Y "counts"
*RAS_HEADER_END
*RAS_INT_START
5.0000 630.0000 1.0000
5.0100 673.0000 1.0000
5.0200 666.0000 1.0000
5.0300 693.0000 1.0000
5.0400 700.0000 1.0000
5.0500 664.0000 1.0000
5.0600 675.0000 1.0000
5.0700 671.0000 1.0000
5.0800 732.0000 1.0000
5.0900 710.0000 1.0000
5.1000 690.0000 1.0000
5.1100 672.0000 1.0000
5.1200 708.0000 1.0000
5.1300 713.0000 1.0000
5.1400 701.0000 1.0000
5.1500 701.0000 1.0000
5.1600 760.0000 1.0000
5.1700 700.0000 1.0000
5.1800 697.0000 1.0000
5.1900 668.0000 1.0000
5.2000 703.0000 1.0000
5.2100 652.0000 1.0000
5.2200 688.0000 1.0000
5.2300 662.0000 1.0000
5.2400 660.0000 1.0000
5.2500 679.0000 1.0000
5.2600 693.0000 1.0000
5.2700 675.0000 1.0000
5.2800 699.0000 1.0000
5.2900 706.0000 1.0000
5.3000 715.0000 1.0000
5.3100 731.0000 1.0000
5.3200 681.0000 1.0000
5.3300 650.0000 1.0000
5.3400 706.0000 1.0000
5.3500 654.0000 1.0000
5.3600 701.0000 1.0000
5.3700 706.0000 1.0000
5.3800 674.0000 1.0000
5.3900 693.0000 1.0000
5.4000 675.0000 1.0000
5.4100 750.0000 1.0000
5.4200 734.0000 1.0000
5.4300 708.0000 1.0000
5.4400 685.0000 1.0000
5.4500 714.0000 1.0000
5.4600 726.0000 1.0000
5.4700 703.0000 1.0000
5.4800 728.0000 1.0000
5.4900 725.0000 1.0000
5.5000 674.0000 1.0000
5.5100 720.0000 1.0000
5.5200 687.0000 1.0000
5.5300 716.0000 1.0000
5.5400 699.0000 1.0000
5.5500 696.0000 1.0000
5.5600 695.0000 1.0000
5.5700 708.0000 1.0000
5.5800 708.0000 1.0000
5.5900 663.0000 1.0000
5.6000 701.0000 1.0000
5.6100 694.0000 1.0000
5.6200 721.0000 1.0000
5.6300 737.0000 1.0000
5.6400 731.0000 1.0000
5.6500 784.0000 1.0000
5.6600 710.0000 1.0000
5.6700 737.0000 1.0000
5.6800 724.0000 1.0000
5.6900 766.0000 1.0000
5.7000 699.0000 1.0000
5.7100 689.0000 1.0000
5.7200 706.0000 1.0000
5.7300 735.0000 1.0000
5.7400 709.0000 1.0000
5.7500 754.0000 1.0000
5.7600 716.0000 1.0000
5.7700 721.0000 1.0000
5.7800 731.0000 1.0000
5.7900 742.0000 1.0000
5.8000 760.0000 1.0000
5.8100 782.0000 1.0000
5.8200 755.0000 1.0000
5.8300 708.0000 1.0000
5.8400 733.0000 1.0000
5.8500 710.0000 1.0000
5.8600 748.0000 1.0000
5.8700 733.0000 1.0000
5.8800 687.0000 1.0000
5.8900 773.0000 1.0000
5.9000 746.0000 1.0000
5.9100 697.0000 1.0000
5.9200 724.0000 1.0000
5.9300 716.0000 1.0000
5.9400 747.0000 1.0000
5.9500 746.0000 1.0000
5.9600 748.0000 1.0000
5.9700 744.0000 1.0000
5.9800 723.0000 1.0000
5.9900 725.0000 1.0000
6.0000 781.0000 1.0000
6.0100 760.0000 1.0000
6.0200 736.0000 1.0000
6.0300 755.0000 1.0000
6.0400 690.0000 1.0000
6.0500 734.0000 1.0000
6.0600 735.0000 1.0000
6.0700 737.0000 1.0000
6.0800 715.0000 1.0000
6.0900 726.0000 1.0000
6.1000 703.0000 1.0000
6.1100 769.0000 1.0000
6.1200 711.0000 1.0000
6.1300 760.0000 1.0000
6.1400 722.0000 1.0000
6.1500 780.0000 1.0000
6.1600 736.0000 1.0000
6.1700 736.0000 1.0000
6.1800 735.0000 1.0000
6.1900 728.0000 1.0000
6.2000 742.0000 1.0000
6.2100 737.0000 1.0000
6.2200 705.0000 1.0000
6.2300 786.0000 1.0000
6.2400 723.0000 1.0000
6.2500 732.0000 1.0000
6.2600 766.0000 1.0000
6.2700 714.0000 1.0000
6.2800 766.0000 1.0000
6.2900 745.0000 1.0000
6.3000 743.0000 1.0000
6.3100 784.0000 1.0000
6.3200 794.0000 1.0000
6.3300 721.0000 1.0000
6.3400 699.0000 1.0000
6.3500 781.0000 1.0000
6.3600 728.0000 1.0000
6.3700 776.0000 1.0000
6.3800 753.0000 1.0000
6.3900 793.0000 1.0000
6.4000 759.0000 1.0000
6.4100 780.0000 1.0000
6.4200 757.0000 1.0000
6.4300 715.0000 1.0000
6.4400 740.0000 1.0000
6.4500 754.0000 1.0000
6.4600 753.0000 1.0000
6.4700 769.0000 1.0000
6.4800 755.0000 1.0000
6.4900 770.0000 1.0000
6.5000 751.0000 1.0000
6.5100 787.0000 1.0000
6.5200 795.0000 1.0000
6.5300 783.0000 1.0000
6.5400 784.0000 1.0000
6.5500 786.0000 1.0000
6.5600 767.0000 1.0000
6.5700 757.0000 1.0000
6.5800 702.0000 1.0000
6.5900 793.0000 1.0000
6.6000 763.0000 1.0000
6.6100 762.0000 1.0000
6.6200 766.0000 1.0000
6.6300 745.0000 1.0000
6.6400 749.0000 1.0000
6.6500 769.0000 1.0000
6.6600 791.0000 1.0000
6.6700 768.0000 1.0000
6.6800 770.0000 1.0000
6.6900 784.0000 1.0000
6.7000 760.0000 1.0000
6.7100 780.0000 1.0000
6.7200 802.0000 1.0000
6.7300 797.0000 1.0000
6.7400 789.0000 1.0000
6.7500 784.0000 1.0000
6.7600 747.0000 1.0000
6.7700 749.0000 1.0000
6.7800 775.0000 1.0000
6.7900 773.0000 1.0000
6.8000 738.0000 1.0000
6.8100 747.0000 1.0000
6.8200 751.0000 1.0000
6.8300 793.0000 1.0000
6.8400 802.0000 1.0000
6.8500 819.0000 1.0000
6.8600 787.0000 1.0000
6.8700 755.0000 1.0000
6.8800 753.0000 1.0000
6.8900 777.0000 1.0000
6.9000 764.0000 1.0000
6.9100 794.0000 1.0000
6.9200 777.0000 1.0000
6.9300 809.0000 1.0000
6.9400 784.0000 1.0000
6.9500 782.0000 1.0000
6.9600 808.0000 1.0000
6.9700 777.0000 1.0000
6.9800 814.0000 1.0000
6.9900 826.0000 1.0000
7.0000 768.0000 1.0000
7.0100 760.0000 1.0000
7.0200 765.0000 1.0000
7.0300 795.0000 1.0000
7.0400 769.0000 1.0000
7.0500 762.0000 1.0000
7.0600 741.0000 1.0000
7.0700 757.0000 1.0000
7.0800 767.0000 1.0000
7.0900 788.0000 1.0000
7.1000 755.0000 1.0000
7.1100 815.0000 1.0000
7.1200 795.0000 1.0000
7.1300 756.0000 1.0000
7.1400 755.0000 1.0000
7.1500 761.0000 1.0000
7.1600 782.0000 1.0000
7.1700 820.0000 1.0000
7.1800 809.0000 1.0000
7.1900 786.0000 1.0000
7.2000 801.0000 1.0000
7.2100 833.0000 1.0000
7.2200 820.0000 1.0000
7.2300 798.0000 1.0000
7.2400 784.0000 1.0000
7.2500 853.0000 1.0000
7.2600 771.0000 1.0000
7.2700 759.0000 1.0000
7.2800 737.0000 1.0000
7.2900 836.0000 1.0000
7.3000 770.0000 1.0000
7.3100 785.0000 1.0000
7.3200 837.0000 1.0000
7.3300 834.0000 1.0000
7.3400 785.0000 1.0000
7.3500 815.0000 1.0000
7.3600 769.0000 1.0000
7.3700 840.0000 1.0000
7.3800 825.0000 1.0000
7.3900 810.0000 1.0000
7.4000 823.0000 1.0000
7.4100 812.0000 1.0000
7.4200 809.0000 1.0000
7.4300 813.0000 1.0000
7.4400 841.0000 1.0000
7.4500 828.0000 1.0000
7.4600 801.0000 1.0000
7.4700 818.0000 1.0000
7.4800 848.0000 1.0000
7.4900 822.0000 1.0000
7.5000 837.0000 1.0000
7.5100 835.0000 1.0000
7.5200 829.0000 1.0000
7.5300 835.0000 1.0000
7.5400 847.0000 1.0000
7.5500 855.0000 1.0000
7.5600 873.0000 1.0000
7.5700 855.0000 1.0000
7.5800 878.0000 1.0000
7.5900 829.0000 1.0000
7.6000 836.0000 1.0000
7.6100 813.0000 1.0000
7.6200 825.0000 1.0000
7.6300 875.0000 1.0000
7.6400 827.0000 1.0000
7.6500 815.0000 1.0000
7.6600 871.0000 1.0000
7.6700 813.0000 1.0000
7.6800 869.0000 1.0000
7.6900 838.0000 1.0000
7.7000 825.0000 1.0000
7.7100 847.0000 1.0000
7.7200 847.0000 1.0000
7.7300 841.0000 1.0000
7.7400 840.0000 1.0000
7.7500 848.0000 1.0000
7.7600 823.0000 1.0000
7.7700 823.0000 1.0000
7.7800 857.0000 1.0000
7.7900 860.0000 1.0000
7.8000 885.0000 1.0000
7.8100 860.0000 1.0000
7.8200 880.0000 1.0000
7.8300 846.0000 1.0000
7.8400 865.0000 1.0000
7.8500 858.0000 1.0000
7.8600 869.0000 1.0000
7.8700 906.0000 1.0000
7.8800 836.0000 1.0000
7.8900 828.0000 1.0000
7.9000 792.0000 1.0000
7.9100 859.0000 1.0000
7.9200 914.0000 1.0000
7.9300 852.0000 1.0000
7.9400 853.0000 1.0000
7.9500 875.0000 1.0000
7.9600 878.0000 1.0000
7.9700 862.0000 1.0000
7.9800 845.0000 1.0000
7.9900 850.0000 1.0000
8.0000 846.0000 1.0000
8.0100 864.0000 1.0000
8.0200 827.0000 1.0000
8.0300 870.0000 1.0000
8.0400 816.0000 1.0000
8.0500 855.0000 1.0000
8.0600 874.0000 1.0000
8.0700 856.0000 1.0000
8.0800 878.0000 1.0000
8.0900 844.0000 1.0000
8.1000 905.0000 1.0000
8.1100 844.0000 1.0000
8.1200 910.0000 1.0000
8.1300 854.0000 1.0000
8.1400 859.0000 1.0000
8.1500 825.0000 1.0000
8.1600 882.0000 1.0000
8.1700 846.0000 1.0000
8.1800 901.0000 1.0000
8.1900 873.0000 1.0000
8.2000 895.0000 1.0000
8.2100 892.0000 1.0000
8.2200 876.0000 1.0000
8.2300 909.0000 1.0000
8.2400 892.0000 1.0000
8.2500 846.0000 1.0000
8.2600 888.0000 1.0000
8.2700 877.0000 1.0000
8.2800 888.0000 1.0000
8.2900 860.0000 1.0000
8.3000 851.0000 1.0000
