*RAS_DATA_START
*RAS_HEADER_START
*ATMOSPHERE_TEMP_DATAOUT "0.0000000000"
*ATMOSPHERE_TEMP_END "273.1500000000"
*ATMOSPHERE_TEMP_START "273.1500000000"
*ATMOSPHERE_TEMP_UNIT "K"
*ATMOSPHERE_TEMP_UNIT_DISP "0.0000000000"
*DISP_FMT_X "%.2f"
*DISP_FMT_Y "%.0f"
*DISP_FULLSCALE "147172.6370820000"
*DISP_LINE_COLOR "255.0000000000"
*DISP_LINE_STYLE "0.0000000000"
*DISP_LINE_WIDTH "0.2500000000"
*DISP_NOTE "測定データ-12"
*DISP_OFFSET_Y "0.0000000000"
*DISP_PEAKSEARCH_UNIT_Y "cps"
*DISP_RANGE_BOTTOM "0.0000000000"
*DISP_RANGE_LEFT "5.0000000000"
*DISP_RANGE_LOGCUTOFF "0.0100000000"
*DISP_RANGE_RIGHT "30.0000000000"
*DISP_RANGE_TOP "147172.6370820000"
*DISP_SCALE_MODE_Y "0.0000000000"
*DISP_TAB_NAME "2θ/θ"
*DISP_TITLE_Y "強度"
*DISP_UNIT_Y "cps"
*DISP_WINDOW_NAME "MSG_MACROENGINE"
*FILE_COMMENT " "
*FILE_MD5 ""
*FILE_MEMO " "
*FILE_OPERATOR "Administrator"
*FILE_PART_ID "MEAS_KHP2_00068"
*FILE_SAMPLE " "
*FILE_TYPE "RAS_RAW"
*FILE_USERGROUP "システムマネージャ"
*FILE_VERSION "1.0000000000"
*HW_ATTACHMENT_ID "ATT0099"
*HW_ATTACHMENT_NAME "極低温アタッチメント(Z)-12K BELSORP|Ultra-Low Temp. Att.(Z)-12K BELSORP"
*HW_COUNTER_ID-0 "CUT0041"
*HW_COUNTER_ID-1 "CUT0020"
*HW_COUNTER_ID-2 ""
*HW_COUNTER_ID-3 "CSL0021"
*HW_COUNTER_ID-4 "CMC0021"
*HW_COUNTER_NAME-0 "D/teX Ultra 250|D/teX Ultra 250"
*HW_COUNTER_NAME-1 "None|None"
*HW_COUNTER_NAME-2 ""
*HW_COUNTER_NAME-3 "BBM|BBM"
*HW_COUNTER_NAME-4 "検出器モノクロメータ|Detector monochromator"
*HW_COUNTER_SELECT_NAME "D/teX Ultra 250|D/teX Ultra 250"
*HW_GONIOMETER_ID "GON0023"
*HW_GONIOMETER_NAME "SmartLab|SmartLab"
*HW_GONIOMETER_RADIUS-0 "90.0"
*HW_GONIOMETER_RADIUS-1 "114.0"
*HW_GONIOMETER_RADIUS-2 "190.0"
*HW_GONIOMETER_RADIUS-3 "300.0"
*HW_GONIOMETER_RADIUS-4 "187.0"
*HW_GONIOMETER_RADIUS-5 "300.0"
*HW_GONIOMETER_RADIUS-6 "113.0"
*HW_GONIOMETER_RADIUS-7 "331.0"
*HW_I_OPT_ID-0 "CBO0021"
*HW_I_OPT_ID-1 "ICR0023"
*HW_I_OPT_ID-2 "ISL0021"
*HW_I_OPT_ID-3 "ISO0021"
*HW_I_OPT_ID-4 "IAD0021"
*HW_I_OPT_ID-5 "IPR0001"
*HW_I_OPT_NAME-0 "CBOユニット|CBO unit"
*HW_I_OPT_NAME-1 "標準入射光学ユニット|Standard incident optical unit"
*HW_I_OPT_NAME-2 "標準入射スリットボックス|Standard incident slit box"
*HW_I_OPT_NAME-3 "入射平行スリット|Incident parallel slit"
*HW_I_OPT_NAME-4 "長手制限スリット|Length limiting slit"
*HW_I_OPT_NAME-5 "None|None"
*HW_R_ATTENUATER_AUTOMODE "0"
*HW_R_OPT_ID-0 "RSS0021"
*HW_R_OPT_ID-1 "RCR0023"
*HW_R_OPT_ID-2 "RSO0021"
*HW_R_OPT_ID-3 "RRS0021"
*HW_R_OPT_ID-4 "ATN0021"
*HW_R_OPT_ID-5 "RFL0021"
*HW_R_OPT_ID-6 "RAD0021"
*HW_R_OPT_NAME-0 "標準受光スリットボックス1|Standard receiving slit box # 1"
*HW_R_OPT_NAME-1 "標準受光光学ユニット1|Standard receiving unit # 1"
*HW_R_OPT_NAME-2 "標準受光光学ユニット2|Standard receiving optical unit # 2"
*HW_R_OPT_NAME-3 "標準受光スリットボックス2|Standard receiving slit box # 2"
*HW_R_OPT_NAME-4 "標準アッテネータ|Standard Attenuator"
*HW_R_OPT_NAME-5 "Cu Kβ|Cu K-beta"
*HW_R_OPT_NAME-6 "調整用受光スリット|Alignment receiving slit"
*HW_SAMPLE_HOLDER_ID "SMP0020"
*HW_SAMPLE_HOLDER_NAME "無し|None"
*HW_XG_CURRENT_MAX "200"
*HW_XG_CURRENT_MIN "10"
*HW_XG_CURRENT_RESOLUTION "2"
*HW_XG_CURRENT_UNIT "mA"
*HW_XG_FOCUS ""
*HW_XG_FOCUS_TYPE "Normal"
*HW_XG_ID ""
*HW_XG_NAME "9kW 開放管(45kV 200mA ID:1700)|9kW Rotating anode(45kV 200mA ID:1700)"
*HW_XG_TARGET_ATOMIC_NUMBER "29.0000000000"
*HW_XG_TARGET_NAME "Cu"
*HW_XG_TYPE "Rota"
*HW_XG_VOLTAGE_MAX "45"
*HW_XG_VOLTAGE_MIN "20"
*HW_XG_VOLTAGE_RESOLUTION "2"
*HW_XG_VOLTAGE_UNIT "kV"
*HW_XG_WATT_MAX "9"
*HW_XG_WATT_UNIT "kW"
*HW_XG_WAVE_LENGTH_ALPHA1 "1.540593"
*HW_XG_WAVE_LENGTH_ALPHA2 "1.544414"
*HW_XG_WAVE_LENGTH_BETA "1.392250"
*MEAS_COND_AXIS_NAME-0 "2θ/θ"
*MEAS_COND_AXIS_NAME-1 "2θ"
*MEAS_COND_AXIS_NAME-2 "ω"
*MEAS_COND_AXIS_NAME-3 "Z"
*MEAS_COND_AXIS_NAME-4 "2θ/ω"
*MEAS_COND_AXIS_NAME-5 "θs"
*MEAS_COND_AXIS_NAME-6 "θd"
*MEAS_COND_AXIS_NAME-7 "Ts"
*MEAS_COND_AXIS_NAME-8 "CBO選択スリット"
*MEAS_COND_AXIS_NAME-9 "M"
*MEAS_COND_AXIS_NAME-10 "入射平行スリット"
*MEAS_COND_AXIS_NAME-11 "入射スリット"
*MEAS_COND_AXIS_NAME-12 ""
*MEAS_COND_AXIS_NAME-13 "Zs"
*MEAS_COND_AXIS_NAME-14 "入射光学素子"
*MEAS_COND_AXIS_NAME-15 "長手制限スリット"
*MEAS_COND_AXIS_NAME-16 "センタースリット"
*MEAS_COND_AXIS_NAME-17 "フィルター"
*MEAS_COND_AXIS_NAME-18 "受光スリット1"
*MEAS_COND_AXIS_NAME-19 "受光スリット2"
*MEAS_COND_AXIS_NAME-20 "受光光学素子"
*MEAS_COND_AXIS_NAME-21 "受光平行スリット"
*MEAS_COND_AXIS_NAME-22 "調整用受光スリット"
*MEAS_COND_AXIS_NAME-23 ""
*MEAS_COND_AXIS_NAME-24 ""
*MEAS_COND_AXIS_NAME-25 "Zd"
*MEAS_COND_AXIS_NAME-26 "アッテネータ"
*MEAS_COND_AXIS_NAME-27 "検出器モノクロメータ"
*MEAS_COND_AXIS_NAME-28 "モノクロメータスリット"
*MEAS_COND_AXIS_NAME-29 "プライマリビーム"
*MEAS_COND_AXIS_NAME-30 "PHA"
*MEAS_COND_AXIS_NAME_INTERNAL-0 "TwoThetaTheta"
*MEAS_COND_AXIS_NAME_INTERNAL-1 "TwoTheta"
*MEAS_COND_AXIS_NAME_INTERNAL-2 "Omega"
*MEAS_COND_AXIS_NAME_INTERNAL-3 "Z"
*MEAS_COND_AXIS_NAME_INTERNAL-4 "TwoThetaOmega"
*MEAS_COND_AXIS_NAME_INTERNAL-5 "ThetaS"
*MEAS_COND_AXIS_NAME_INTERNAL-6 "ThetaD"
*MEAS_COND_AXIS_NAME_INTERNAL-7 "Ts"
*MEAS_COND_AXIS_NAME_INTERNAL-8 "CBO"
*MEAS_COND_AXIS_NAME_INTERNAL-9 "CBO-M"
*MEAS_COND_AXIS_NAME_INTERNAL-10 "IncidentSollerSlit"
*MEAS_COND_AXIS_NAME_INTERNAL-11 "IncidentSlitBox"
*MEAS_COND_AXIS_NAME_INTERNAL-12 "IncidentSlitBox-_Axis"
*MEAS_COND_AXIS_NAME_INTERNAL-13 "Zs"
*MEAS_COND_AXIS_NAME_INTERNAL-14 "IncidentMonochromator"
*MEAS_COND_AXIS_NAME_INTERNAL-15 "IncidentAxdSlit"
*MEAS_COND_AXIS_NAME_INTERNAL-16 "CenterSlit"
*MEAS_COND_AXIS_NAME_INTERNAL-17 "Filter"
*MEAS_COND_AXIS_NAME_INTERNAL-18 "ReceivingSlitBox1"
*MEAS_COND_AXIS_NAME_INTERNAL-19 "ReceivingSlitBox2"
*MEAS_COND_AXIS_NAME_INTERNAL-20 "ReceivingOptics"
*MEAS_COND_AXIS_NAME_INTERNAL-21 "ReceivingSollerSlit"
*MEAS_COND_AXIS_NAME_INTERNAL-22 "ReceivingAxdSlit"
*MEAS_COND_AXIS_NAME_INTERNAL-23 "ReceivingSlitBox1-_Axis"
*MEAS_COND_AXIS_NAME_INTERNAL-24 "ReceivingSlitBox2-_Axis"
*MEAS_COND_AXIS_NAME_INTERNAL-25 "ReceivingSlitBox2-Zd"
*MEAS_COND_AXIS_NAME_INTERNAL-26 "Attenuator"
*MEAS_COND_AXIS_NAME_INTERNAL-27 "CounterMonochromator"
*MEAS_COND_AXIS_NAME_INTERNAL-28 "CounterSlit"
*MEAS_COND_AXIS_NAME_INTERNAL-29 "IncidentPrimary"
*MEAS_COND_AXIS_NAME_INTERNAL-30 "PHA"
*MEAS_COND_AXIS_NAME_MAGICNO-0 "83951616.0000000000"
*MEAS_COND_AXIS_NAME_MAGICNO-1 "268632064.0000000000"
*MEAS_COND_AXIS_NAME_MAGICNO-2 "268500992.0000000000"
*MEAS_COND_AXIS_NAME_MAGICNO-3 "285278208.0000000000"
*MEAS_COND_AXIS_NAME_MAGICNO-4 "83951616.0000000000"
*MEAS_COND_AXIS_NAME_MAGICNO-5 "131072.0000000000"
*MEAS_COND_AXIS_NAME_MAGICNO-6 "131072.0000000000"
*MEAS_COND_AXIS_NAME_MAGICNO-7 "318898176.0000000000"
*MEAS_COND_AXIS_NAME_MAGICNO-8 "20971521.0000000000"
*MEAS_COND_AXIS_NAME_MAGICNO-9 "285343744.0000000000"
*MEAS_COND_AXIS_NAME_MAGICNO-10 "20971521.0000000000"
*MEAS_COND_AXIS_NAME_MAGICNO-11 "22020097.0000000000"
*MEAS_COND_AXIS_NAME_MAGICNO-12 "25165824.0000000000"
*MEAS_COND_AXIS_NAME_MAGICNO-13 "318898176.0000000000"
*MEAS_COND_AXIS_NAME_MAGICNO-14 "1.0000000000"
*MEAS_COND_AXIS_NAME_MAGICNO-15 "20971521.0000000000"
*MEAS_COND_AXIS_NAME_MAGICNO-16 "20971521.0000000000"
*MEAS_COND_AXIS_NAME_MAGICNO-17 "20971521.0000000000"
*MEAS_COND_AXIS_NAME_MAGICNO-18 "23068673.0000000000"
*MEAS_COND_AXIS_NAME_MAGICNO-19 "23068673.0000000000"
*MEAS_COND_AXIS_NAME_MAGICNO-20 "20971521.0000000000"
*MEAS_COND_AXIS_NAME_MAGICNO-21 "20971521.0000000000"
*MEAS_COND_AXIS_NAME_MAGICNO-22 "20971521.0000000000"
*MEAS_COND_AXIS_NAME_MAGICNO-23 "25165824.0000000000"
*MEAS_COND_AXIS_NAME_MAGICNO-24 "25165824.0000000000"
*MEAS_COND_AXIS_NAME_MAGICNO-25 "285343744.0000000000"
*MEAS_COND_AXIS_NAME_MAGICNO-26 "17301505.0000000000"
*MEAS_COND_AXIS_NAME_MAGICNO-27 "20971521.0000000000"
*MEAS_COND_AXIS_NAME_MAGICNO-28 "20971521.0000000000"
*MEAS_COND_AXIS_NAME_MAGICNO-29 "20971521.0000000000"
*MEAS_COND_AXIS_NAME_MAGICNO-30 "0.0000000000"
*MEAS_COND_AXIS_OFFSET-0 "-"
*MEAS_COND_AXIS_OFFSET-1 "0.4252000000"
*MEAS_COND_AXIS_OFFSET-2 "0.2500000000"
*MEAS_COND_AXIS_OFFSET-3 "-"
*MEAS_COND_AXIS_OFFSET-4 "-"
*MEAS_COND_AXIS_OFFSET-5 "0.2500000000"
*MEAS_COND_AXIS_OFFSET-6 "0.1752000000"
*MEAS_COND_AXIS_OFFSET-7 "-"
*MEAS_COND_AXIS_OFFSET-8 "-"
*MEAS_COND_AXIS_OFFSET-9 "-"
*MEAS_COND_AXIS_OFFSET-10 "-"
*MEAS_COND_AXIS_OFFSET-11 "-"
*MEAS_COND_AXIS_OFFSET-12 "-"
*MEAS_COND_AXIS_OFFSET-13 "-"
*MEAS_COND_AXIS_OFFSET-14 "-"
*MEAS_COND_AXIS_OFFSET-15 "-"
*MEAS_COND_AXIS_OFFSET-16 "-"
*MEAS_COND_AXIS_OFFSET-17 "-"
*MEAS_COND_AXIS_OFFSET-18 "-"
*MEAS_COND_AXIS_OFFSET-19 "-"
*MEAS_COND_AXIS_OFFSET-20 "-"
*MEAS_COND_AXIS_OFFSET-21 "-"
*MEAS_COND_AXIS_OFFSET-22 "-"
*MEAS_COND_AXIS_OFFSET-23 "-"
*MEAS_COND_AXIS_OFFSET-24 "-"
*MEAS_COND_AXIS_OFFSET-25 "-"
*MEAS_COND_AXIS_OFFSET-26 "-"
*MEAS_COND_AXIS_OFFSET-27 "-"
*MEAS_COND_AXIS_OFFSET-28 "-"
*MEAS_COND_AXIS_OFFSET-29 "-"
*MEAS_COND_AXIS_OFFSET-30 "-"
*MEAS_COND_AXIS_POSITION-0 "0.0000000000"
*MEAS_COND_AXIS_POSITION-1 "0.0000000000"
*MEAS_COND_AXIS_POSITION-2 "0.0000000000"
*MEAS_COND_AXIS_POSITION-3 "-0.6926000000"
*MEAS_COND_AXIS_POSITION-4 "0.0000000000"
*MEAS_COND_AXIS_POSITION-5 "0.0000000000"
*MEAS_COND_AXIS_POSITION-6 "0.0000000000"
*MEAS_COND_AXIS_POSITION-7 "-0.8530000000"
*MEAS_COND_AXIS_POSITION-8 "BB"
*MEAS_COND_AXIS_POSITION-9 "0.0000000000"
*MEAS_COND_AXIS_POSITION-10 "Soller_slit_2.5deg"
*MEAS_COND_AXIS_POSITION-11 "1/3deg"
*MEAS_COND_AXIS_POSITION-12 "1.1044000000"
*MEAS_COND_AXIS_POSITION-13 "-0.3171900000"
*MEAS_COND_AXIS_POSITION-14 "0.0000000000"
*MEAS_COND_AXIS_POSITION-15 "2.0mm"
*MEAS_COND_AXIS_POSITION-16 "None"
*MEAS_COND_AXIS_POSITION-17 "Cu_K-beta"
*MEAS_COND_AXIS_POSITION-18 "20.000mm"
*MEAS_COND_AXIS_POSITION-19 "20.000mm"
*MEAS_COND_AXIS_POSITION-20 "No_unit"
*MEAS_COND_AXIS_POSITION-21 "Soller_slit_2.5deg"
*MEAS_COND_AXIS_POSITION-22 "None"
*MEAS_COND_AXIS_POSITION-23 "20.0000000000"
*MEAS_COND_AXIS_POSITION-24 "20.0000000000"
*MEAS_COND_AXIS_POSITION-25 "0.0409400000"
*MEAS_COND_AXIS_POSITION-26 "Open"
*MEAS_COND_AXIS_POSITION-27 "None"
*MEAS_COND_AXIS_POSITION-28 "None"
*MEAS_COND_AXIS_POSITION-29 "None"
*MEAS_COND_AXIS_POSITION-30 "34.0000000000"
*MEAS_COND_AXIS_UNIT-0 "deg"
*MEAS_COND_AXIS_UNIT-1 "deg"
*MEAS_COND_AXIS_UNIT-2 "deg"
*MEAS_COND_AXIS_UNIT-3 "mm"
*MEAS_COND_AXIS_UNIT-4 "deg"
*MEAS_COND_AXIS_UNIT-5 "deg"
*MEAS_COND_AXIS_UNIT-6 "deg"
*MEAS_COND_AXIS_UNIT-7 "mm"
*MEAS_COND_AXIS_UNIT-8 ""
*MEAS_COND_AXIS_UNIT-9 "pulse"
*MEAS_COND_AXIS_UNIT-10 ""
*MEAS_COND_AXIS_UNIT-11 ""
*MEAS_COND_AXIS_UNIT-12 "mm"
*MEAS_COND_AXIS_UNIT-13 "mm"
*MEAS_COND_AXIS_UNIT-14 ""
*MEAS_COND_AXIS_UNIT-15 ""
*MEAS_COND_AXIS_UNIT-16 ""
*MEAS_COND_AXIS_UNIT-17 ""
*MEAS_COND_AXIS_UNIT-18 ""
*MEAS_COND_AXIS_UNIT-19 ""
*MEAS_COND_AXIS_UNIT-20 ""
*MEAS_COND_AXIS_UNIT-21 ""
*MEAS_COND_AXIS_UNIT-22 ""
*MEAS_COND_AXIS_UNIT-23 "mm"
*MEAS_COND_AXIS_UNIT-24 "mm"
*MEAS_COND_AXIS_UNIT-25 "mm"
*MEAS_COND_AXIS_UNIT-26 ""
*MEAS_COND_AXIS_UNIT-27 ""
*MEAS_COND_AXIS_UNIT-28 ""
*MEAS_COND_AXIS_UNIT-29 ""
*MEAS_COND_AXIS_UNIT-30 "div"
*MEAS_COND_COUNTER_CNTLOSS_CORR "0.0000000000"
*MEAS_COND_COUNTER_PHABASE "34.0000000000"
*MEAS_COND_COUNTER_PHAWINDOW "15.0000000000"
*MEAS_COND_COUNTER_PHA_UNIT "div"
*MEAS_COND_COUNTER_TAUDIFF "0.0000000000"
*MEAS_COND_COUNTER_TAUINT "0.0000000000"
*MEAS_COND_IRRADIATION_MODE "OFF"
*MEAS_COND_IRRADIATION_WIDTH ""
*MEAS_COND_OPT_ATTR "集中法"
*MEAS_COND_OPT_NAME "ガス吸着（クライオ運転）"
*MEAS_COND_UNSYMMETRIC_MODE "OFF"
*MEAS_COND_XG_CURRENT "200.0000000000"
*MEAS_COND_XG_VOLTAGE "45.0000000000"
*MEAS_COND_XG_WAVE_TYPE "Ka"
*MEAS_DATA_COUNT "2501.0000000000"
*MEAS_SCAN_AXIS_X "2θ/θ"
*MEAS_SCAN_AXIS_X_INTERNAL "TwoThetaTheta"
*MEAS_SCAN_END_TIME "10/05/17 19:02:31"
*MEAS_SCAN_MODE "CONTINUOUS"
*MEAS_SCAN_MONITOR "0"
*MEAS_SCAN_RESOLUTION_X "0.0002"
*MEAS_SCAN_SPEED "5.098477"
*MEAS_SCAN_SPEED_UNIT "deg/min"
*MEAS_SCAN_SPEED_USER "5.0"
*MEAS_SCAN_START "5.0000000000"
*MEAS_SCAN_START_TIME "10/05/17 18:56:23"
*MEAS_SCAN_STEP "0.0100000000"
*MEAS_SCAN_STOP "30.0000000000"
*MEAS_SCAN_UNIT_X "deg"
*MEAS_SCAN_UNIT_Y "counts"
*RAS_HEADER_END
*RAS_INT_START
5.0000 663.0000 1.0000
5.0100 693.0000 1.0000
5.0200 694.0000 1.0000
5.0300 671.0000 1.0000
5.0400 689.0000 1.0000
5.0500 687.0000 1.0000
5.0600 632.0000 1.0000
5.0700 659.0000 1.0000
5.0800 683.0000 1.0000
5.0900 669.0000 1.0000
5.1000 688.0000 1.0000
5.1100 657.0000 1.0000
5.1200 621.0000 1.0000
5.1300 650.0000 1.0000
5.1400 644.0000 1.0000
5.1500 672.0000 1.0000
5.1600 653.0000 1.0000
5.1700 671.0000 1.0000
5.1800 668.0000 1.0000
5.1900 657.0000 1.0000
5.2000 656.0000 1.0000
5.2100 651.0000 1.0000
5.2200 672.0000 1.0000
5.2300 655.0000 1.0000
5.2400 655.0000 1.0000
5.2500 642.0000 1.0000
5.2600 671.0000 1.0000
5.2700 712.0000 1.0000
5.2800 676.0000 1.0000
5.2900 699.0000 1.0000
5.3000 711.0000 1.0000
5.3100 673.0000 1.0000
5.3200 673.0000 1.0000
5.3300 700.0000 1.0000
5.3400 646.0000 1.0000
5.3500 713.0000 1.0000
5.3600 661.0000 1.0000
5.3700 703.0000 1.0000
5.3800 673.0000 1.0000
5.3900 690.0000 1.0000
5.4000 690.0000 1.0000
5.4100 646.0000 1.0000
5.4200 720.0000 1.0000
5.4300 676.0000 1.0000
5.4400 702.0000 1.0000
5.4500 649.0000 1.0000
5.4600 654.0000 1.0000
5.4700 676.0000 1.0000
5.4800 728.0000 1.0000
5.4900 688.0000 1.0000
5.5000 686.0000 1.0000
5.5100 674.0000 1.0000
5.5200 691.0000 1.0000
5.5300 676.0000 1.0000
5.5400 696.0000 1.0000
5.5500 728.0000 1.0000
5.5600 690.0000 1.0000
5.5700 699.0000 1.0000
5.5800 672.0000 1.0000
5.5900 647.0000 1.0000
5.6000 695.0000 1.0000
5.6100 653.0000 1.0000
5.6200 664.0000 1.0000
5.6300 698.0000 1.0000
5.6400 699.0000 1.0000
5.6500 686.0000 1.0000
5.6600 686.0000 1.0000
5.6700 701.0000 1.0000
5.6800 774.0000 1.0000
5.6900 700.0000 1.0000
5.7000 744.0000 1.0000
5.7100 761.0000 1.0000
5.7200 691.0000 1.0000
5.7300 698.0000 1.0000
5.7400 710.0000 1.0000
5.7500 712.0000 1.0000
5.7600 690.0000 1.0000
5.7700 698.0000 1.0000
5.7800 715.0000 1.0000
5.7900 699.0000 1.0000
5.8000 708.0000 1.0000
5.8100 732.0000 1.0000
5.8200 714.0000 1.0000
5.8300 749.0000 1.0000
5.8400 685.0000 1.0000
5.8500 686.0000 1.0000
5.8600 726.0000 1.0000
5.8700 736.0000 1.0000
5.8800 709.0000 1.0000
5.8900 751.0000 1.0000
5.9000 733.0000 1.0000
5.9100 675.0000 1.0000
5.9200 729.0000 1.0000
5.9300 720.0000 1.0000
5.9400 692.0000 1.0000
5.9500 705.0000 1.0000
5.9600 698.0000 1.0000
5.9700 713.0000 1.0000
5.9800 677.0000 1.0000
5.9900 697.0000 1.0000
6.0000 707.0000 1.0000
6.0100 731.0000 1.0000
6.0200 682.0000 1.0000
6.0300 708.0000 1.0000
6.0400 741.0000 1.0000
6.0500 748.0000 1.0000
6.0600 709.0000 1.0000
6.0700 739.0000 1.0000
6.0800 722.0000 1.0000
6.0900 737.0000 1.0000
6.1000 719.0000 1.0000
6.1100 685.0000 1.0000
6.1200 729.0000 1.0000
6.1300 681.0000 1.0000
6.1400 732.0000 1.0000
6.1500 758.0000 1.0000
6.1600 701.0000 1.0000
6.1700 707.0000 1.0000
6.1800 717.0000 1.0000
6.1900 751.0000 1.0000
6.2000 734.0000 1.0000
6.2100 711.0000 1.0000
6.2200 685.0000 1.0000
6.2300 728.0000 1.0000
6.2400 745.0000 1.0000
6.2500 697.0000 1.0000
6.2600 723.0000 1.0000
6.2700 714.0000 1.0000
6.2800 716.0000 1.0000
6.2900 739.0000 1.0000
6.3000 748.0000 1.0000
6.3100 701.0000 1.0000
6.3200 757.0000 1.0000
6.3300 715.0000 1.0000
6.3400 744.0000 1.0000
6.3500 784.0000 1.0000
6.3600 762.0000 1.0000
6.3700 714.0000 1.0000
6.3800 744.0000 1.0000
6.3900 756.0000 1.0000
6.4000 723.0000 1.0000
6.4100 775.0000 1.0000
6.4200 723.0000 1.0000
6.4300 763.0000 1.0000
6.4400 775.0000 1.0000
6.4500 748.0000 1.0000
6.4600 742.0000 1.0000
6.4700 756.0000 1.0000
6.4800 752.0000 1.0000
6.4900 766.0000 1.0000
6.5000 741.0000 1.0000
6.5100 719.0000 1.0000
6.5200 761.0000 1.0000
6.5300 762.0000 1.0000
6.5400 760.0000 1.0000
6.5500 726.0000 1.0000
6.5600 704.0000 1.0000
6.5700 764.0000 1.0000
6.5800 714.0000 1.0000
6.5900 755.0000 1.0000
6.6000 780.0000 1.0000
6.6100 704.0000 1.0000
6.6200 719.0000 1.0000
6.6300 726.0000 1.0000
6.6400 755.0000 1.0000
6.6500 793.0000 1.0000
6.6600 738.0000 1.0000
6.6700 758.0000 1.0000
6.6800 796.0000 1.0000
6.6900 735.0000 1.0000
6.7000 748.0000 1.0000
6.7100 761.0000 1.0000
6.7200 777.0000 1.0000
6.7300 769.0000 1.0000
6.7400 755.0000 1.0000
6.7500 772.0000 1.0000
6.7600 780.0000 1.0000
6.7700 781.0000 1.0000
6.7800 757.0000 1.0000
6.7900 793.0000 1.0000
6.8000 764.0000 1.0000
6.8100 742.0000 1.0000
6.8200 778.0000 1.0000
6.8300 763.0000 1.0000
6.8400 768.0000 1.0000
6.8500 749.0000 1.0000
6.8600 762.0000 1.0000
6.8700 794.0000 1.0000
6.8800 816.0000 1.0000
6.8900 772.0000 1.0000
6.9000 817.0000 1.0000
6.9100 777.0000 1.0000
6.9200 764.0000 1.0000
6.9300 725.0000 1.0000
6.9400 776.0000 1.0000
6.9500 752.0000 1.0000
6.9600 701.0000 1.0000
6.9700 760.0000 1.0000
6.9800 764.0000 1.0000
6.9900 779.0000 1.0000
7.0000 774.0000 1.0000
7.0100 771.0000 1.0000
7.0200 780.0000 1.0000
7.0300 776.0000 1.0000
7.0400 767.0000 1.0000
7.0500 768.0000 1.0000
7.0600 732.0000 1.0000
7.0700 787.0000 1.0000
7.0800 765.0000 1.0000
7.0900 743.0000 1.0000
7.1000 736.0000 1.0000
7.1100 724.0000 1.0000
7.1200 775.0000 1.0000
7.1300 780.0000 1.0000
7.1400 810.0000 1.0000
7.1500 776.0000 1.0000
7.1600 797.0000 1.0000
7.1700 796.0000 1.0000
7.1800 792.0000 1.0000
7.1900 786.0000 1.0000
7.2000 767.0000 1.0000
7.2100 771.0000 1.0000
7.2200 736.0000 1.0000
7.2300 727.0000 1.0000
7.2400 789.0000 1.0000
7.2500 808.0000 1.0000
7.2600 773.0000 1.0000
7.2700 800.0000 1.0000
7.2800 759.0000 1.0000
7.2900 773.0000 1.0000
7.3000 791.0000 1.0000
7.3100 830.0000 1.0000
7.3200 817.0000 1.0000
7.3300 835.0000 1.0000
7.3400 839.0000 1.0000
7.3500 774.0000 1.0000
7.3600 756.0000 1.0000
7.3700 796.0000 1.0000
7.3800 801.0000 1.0000
7.3900 759.0000 1.0000
7.4000 805.0000 1.0000
7.4100 809.0000 1.0000
7.4200 817.0000 1.0000
7.4300 759.0000 1.0000
7.4400 821.0000 1.0000
7.4500 770.0000 1.0000
7.4600 759.0000 1.0000
7.4700 793.0000 1.0000
7.4800 788.0000 1.0000
7.4900 772.0000 1.0000
7.5000 797.0000 1.0000
7.5100 769.0000 1.0000
7.5200 847.0000 1.0000
7.5300 786.0000 1.0000
7.5400 814.0000 1.0000
7.5500 810.0000 1.0000
7.5600 817.0000 1.0000
7.5700 796.0000 1.0000
7.5800 847.0000 1.0000
7.5900 817.0000 1.0000
7.6000 813.0000 1.0000
7.6100 844.0000 1.0000
7.6200 776.0000 1.0000
7.6300 796.0000 1.0000
7.6400 843.0000 1.0000
7.6500 863.0000 1.0000
7.6600 780.0000 1.0000
7.6700 814.0000 1.0000
7.6800 869.0000 1.0000
7.6900 821.0000 1.0000
7.7000 805.0000 1.0000
7.7100 825.0000 1.0000
7.7200 773.0000 1.0000
7.7300 830.0000 1.0000
7.7400 803.0000 1.0000
7.7500 834.0000 1.0000
7.7600 852.0000 1.0000
7.7700 837.0000 1.0000
7.7800 870.0000 1.0000
7.7900 783.0000 1.0000
7.8000 796.0000 1.0000
7.8100 820.0000 1.0000
7.8200 833.0000 1.0000
7.8300 800.0000 1.0000
7.8400 803.0000 1.0000
7.8500 821.0000 1.0000
7.8600 843.0000 1.0000
7.8700 841.0000 1.0000
7.8800 792.0000 1.0000
7.8900 837.0000 1.0000
7.9000 842.0000 1.0000
7.9100 822.0000 1.0000
7.9200 848.0000 1.0000
7.9300 823.0000 1.0000
7.9400 836.0000 1.0000
7.9500 816.0000 1.0000
7.9600 850.0000 1.0000
7.9700 851.0000 1.0000
7.9800 807.0000 1.0000
7.9900 826.0000 1.0000
8.0000 858.0000 1.0000
8.0100 824.0000 1.0000
8.0200 869.0000 1.0000
8.0300 824.0000 1.0000
8.0400 859.0000 1.0000
8.0500 828.0000 1.0000
8.0600 831.0000 1.0000
8.0700 799.0000 1.0000
8.0800 836.0000 1.0000
8.0900 848.0000 1.0000
8.1000 839.0000 1.0000
8.1100 849.0000 1.0000
8.1200 861.0000 1.0000
8.1300 863.0000 1.0000
8.1400 863.0000 1.0000
8.1500 807.0000 1.0000
8.1600 826.0000 1.0000
8.1700 842.0000 1.0000
8.1800 853.0000 1.0000
8.1900 881.0000 1.0000
8.2000 847.0000 1.0000
8.2100 890.0000 1.0000
8.2200 887.0000 1.0000
8.2300 854.0000 1.0000
8.2400 855.0000 1.0000
8.2500 839.0000 1.0000
8.2600 851.0000 1.0000
8.2700 884.0000 1.0000
8.2800 891.0000 1.0000
8.2900 875.0000 1.0000
8.3000 888.0000 1.0000
